Wavelength	240	250	260	270	280	290	300	310	320	330	340	350	360	370	380	390	400	410	420	430	440	450
300	32899.12431	22154.70198	39408.55244	1344923.416	155844.5165	169206.922	15189225.07	82084.92772	9558.538744	5940.023658	3689.345469	2770.077531	1330.79825	1555.149343	1975.552027	2115.6603	1331.592264	1459.839511	1278.319947	1019.436361	1585.414205	1183.829885
302	28876.061	26783.80151	38803.06068	900050.0718	347974.4787	101961.4736	12396183.4	802047.1514	10172.0366	7048.317388	3443.227384	3121.111589	2181.108746	2527.547479	1386.976453	1757.345945	1382.653948	1268.135164	1285.76077	1555.709005	1284.038792	2222.422791
304	38744.6909	25855.05951	40537.23872	481751.1653	727008.157	89976.5182	7341466.917	3281291.628	14503.14455	6334.061993	3439.914093	3538.893586	2335.898867	1985.254516	2027.921744	2032.843139	1074.232233	1634.259066	1123.869283	1224.195878	1450.526956	1488.416956
306	36570.64444	30541.81373	33950.73729	212875.6894	1191212.523	79718.99331	2862825.825	8210357.141	16159.26728	6201.027553	4041.222756	3314.966184	2239.375774	1689.450264	1969.520789	1351.077945	888.3204686	1865.622638	854.1225111	1773.00633	1692.717475	1646.018796
308	32428.74494	29773.81834	35942.73586	94173.48276	1620545.612	74595.03052	713565.93	13247474.79	23052.99821	7054.784784	3926.843062	3172.051542	2138.153965	1918.611861	2393.118408	1709.972823	1237.727853	1710.444226	1168.724595	1093.497581	1189.905545	1185.733661
310	45946.01697	33309.57841	36326.62315	58961.33716	1746885.811	90601.77659	137577.0653	15013437.9	75413.64948	7719.793911	3887.570369	3108.887693	2217.090728	1860.09255	880.5204362	1445.440639	887.8189491	2094.973061	1811.5837	1149.151533	1671.262181	1417.343435
312	45738.24186	30932.11005	32543.37867	48285.82532	1363678.047	161097.4919	81122.67157	12317215.47	805181.5039	9334.281646	3475.70032	3451.70657	1988.641146	2340.259484	1446.897205	1330.872012	1207.167838	1214.428777	1387.499804	1005.593526	1377.169172	1191.923444
314	41473.02433	28424.68117	34028.31487	43970.66901	818975.108	346108.5924	69421.27554	6798675.902	2982259.327	11776.33652	3726.241619	3507.865687	2409.104307	2160.556808	1264.110282	1388.070776	691.0083273	1251.226826	1831.86519	784.4626554	1206.935501	1068.522746
316	40652.40478	33946.88155	29442.69502	40324.90403	424579.3265	741594.2551	60462.27155	2423098.124	7379940.425	14265.90358	3427.606071	3333.023987	2541.115731	1492.969239	860.9115362	1371.185335	915.9938262	1318.278996	978.2286249	1170.537689	1684.821032	585.2407083
318	42369.8837	33254.3818	33006.47822	38873.6583	186477.6617	1190722.456	55059.924	598140.268	12218476.56	19880.91926	4074.071374	3654.423386	1882.579012	1178.103474	727.514521	2171.158822	940.1216719	756.5722588	1018.242095	1102.597858	1315.58838	1158.45505
320	45164.26026	35557.93622	30486.29728	37606.11946	78876.47973	1547310.623	47732.73084	101644.0517	14109849.4	61510.98975	4681.857981	3189.329695	1764.629831	2255.088438	1244.046792	1863.154535	815.8480131	672.9049811	1182.049211	934.2447434	1254.706355	949.0784929
322	47454.9521	32650.79865	27245.99136	34055.95612	49694.31765	1661689.882	57985.29266	65803.37625	11145364.93	710700.8229	4915.636492	3108.089744	2260.126203	2059.35661	1261.855436	1847.82768	775.4544333	1250.755479	1176.267273	710.7784614	997.6817398	1738.539948
324	34836.71465	34430.0737	25683.85026	37322.34671	42178.84229	1369910.296	104915.1337	54487.25636	6953557.139	3054620.4	5959.190957	3566.2796	2430.436455	1578.040188	901.7641481	1425.268366	870.8432602	977.079427	1316.510898	518.0097955	1131.613152	1244.352149
326	42653.64214	34132.49563	26010.68012	32370.05592	37865.57799	910593.8549	231193.8049	47684.7293	2832667.771	7187131.199	8358.088006	3612.001564	2348.111333	2025.316778	1250.493007	1628.024391	726.3770705	1020.273713	581.1598941	761.1915158	1042.19437	762.8679847
328	41929.6307	33870.31423	24634.19008	32487.25139	32388.44068	474431.8932	480044.0056	41154.24245	733780.5904	11752881.16	10658.70134	3960.792831	2641.005949	1894.970021	1347.469056	1607.749862	964.0321386	588.1316125	1053.352237	984.9091775	1243.814488	1034.538776
330	39214.09219	30444.07499	22928.00853	30349.65331	30604.23386	221793.0262	772873.1587	33918.89994	120812.0361	13284495.62	31162.79184	4717.662688	2100.836402	1638.614327	1322.29452	1849.353349	900.7776888	1090.55704	634.5541131	676.213613	1319.653888	847.7595989
332	33326.70347	31818.99455	22259.20284	28657.95536	27436.9864	99420.83	1053611.203	32417.113	66846.58499	10881499.95	305047.2146	4819.390411	2033.629087	1691.480201	1112.322477	1626.549792	780.5670986	1033.109459	890.553144	903.3857638	871.1765848	877.3420385
334	38591.46769	29220.40395	20702.31054	25898.12947	27373.20111	54059.23703	1069943.505	34776.61967	57789.4353	6613046.57	1252977.114	5913.737145	2164.231038	1878.409128	1171.394618	1375.342865	781.9555718	929.5866776	876.3710498	1059.649955	725.9798411	787.4416966
336	28044.47654	25556.45458	19259.50376	25082.94716	28113.99363	40683.81139	974058.4796	64681.91255	48833.34981	2627402.282	3471930.392	6865.854487	2095.223302	1919.869343	1066.595645	1700.148321	578.1079754	804.2343643	473.2220242	762.0856691	1031.242631	1108.11387
338	30583.24937	24252.27148	17383.22186	21484.84392	25209.53226	34897.33326	695709.5639	146829.435	41871.2385	642207.2535	5083777.76	10009.90554	2698.338445	2092.515281	1015.953915	1299.459077	739.4604529	611.4845293	737.0658914	680.3163001	736.8391546	906.7556175
340	27517.22806	24861.71445	14983.1888	19716.4683	23564.24489	30642.1166	388474.4999	303292.2681	36817.79435	100393.8296	6381998.638	28050.00298	2913.200058	1721.01634	951.7234407	1470.920274	659.7734651	626.6716366	858.1675423	696.7253645	505.7373806	962.1115144
342	23382.8799	21197.7158	16242.95228	18814.36157	22454.597	27836.45263	187739.3387	508278.348	33076.24728	49914.14877	5112676.024	306581.222	3269.875652	1768.49375	940.0472375	1108.932133	531.3720524	631.9860474	418.5629864	686.6570606	647.8702926	823.5698135
344	29536.3422	20789.16526	14389.35489	19068.93928	21609.78841	25122.69463	74313.10076	649816.1379	28416.35841	39156.83639	2919043.501	1231232.888	4168.750095	1899.279844	1052.536346	1221.077051	827.6072695	781.298878	635.240794	605.4885223	543.8223525	575.4957173
346	24384.99942	19029.20068	12899.76262	17774.14394	21736.10479	21891.20608	37010.63276	686184.4225	29014.96937	32525.07653	1136125.044	3036048.821	5123.269552	2115.65531	875.5803237	900.8129481	601.6291184	470.6550333	624.2941585	674.6957142	351.7446378	729.5270557
348	20312.4033	16476.4894	12603.00467	17239.35481	18417.17037	20377.54404	23315.28402	587628.0574	45453.47923	30446.27988	258164.5692	4895833.104	7075.826664	2013.942881	884.1448077	1204.870961	581.3772617	451.3147651	452.8033778	463.2132947	534.1267347	815.765723
350	16707.27942	15151.61054	12800.61852	15590.64152	17305.05122	19500.22914	19156.08272	445799.6536	98921.16196	26657.54046	41966.311	5716141.861	21667.05039	1842.874588	843.1559343	1304.559321	698.0867835	555.6014407	518.5578062	735.0468325	688.3091022	368.8574906
352	19814.98849	15340.25227	11100.39233	12730.24903	14824.05707	18432.01512	18346.43011	269347.9792	225579.376	22830.15471	20908.79687	4763574.413	240321.4597	2413.294167	893.6697571	1124.023418	647.7365347	485.7379059	566.4004533	364.9561042	481.5499984	482.2921105
354	19288.21185	13392.30843	11458.46518	13562.85785	15295.31508	17974.55732	15257.64953	128127.7759	373887.8315	21119.44032	16414.27558	2752340.385	992938.9934	2878.73488	936.5965022	1150.090618	669.2255591	418.8377475	330.3366241	468.93512	505.4643208	529.0771615
356	17860.37307	14551.30588	9555.655722	12874.20648	14147.30569	17198.09077	13714.28572	52297.66644	516295.1124	18424.89729	15718.70498	1025143.029	2492016.954	3675.769467	918.9410433	1159.60416	508.7362801	480.8507674	376.4337533	680.722044	661.5093704	529.5840962
358	16107.56135	11378.86149	9123.3964	12283.82291	12848.41065	17595.06573	13837.09377	23519.07097	583218.3406	19985.02238	12318.76779	236741.3686	3749178.425	5501.662177	969.4986423	1162.632299	650.0668327	440.2196018	429.7024021	468.384432	436.5508139	405.0325281
360	15312.80525	11511.83449	8555.165627	11754.18855	12841.28339	16648.4767	14051.30264	13873.95362	576320.3954	29553.31348	11099.88272	36174.39068	4011642.683	19055.61412	1155.944103	1156.452561	615.3150561	354.6608099	525.7545934	452.9026655	454.4222287	274.7994368
362	15170.25492	11525.18714	8938.081517	12773.06737	11613.58439	16431.01411	13042.03558	10950.81647	429215.5906	63841.21098	11162.17275	20016.4583	3129657.21	219543.6131	1373.902756	917.6506273	659.0667458	375.3737828	329.9114509	477.6658662	613.5738156	656.2388457
364	16026.24401	8528.586947	8059.164664	12657.53658	11619.26431	15092.43666	12625.26634	9956.25155	263996.6436	134870.8648	8722.160839	14668.38558	1791370.663	896214.9465	1685.264119	938.066608	611.9052965	407.3931751	437.77005	491.3527017	561.8610444	396.6092553
366	12457.51971	10112.59979	8421.38471	12351.30718	10870.68981	15466.9782	14154.07054	8575.621061	137175.6801	247397.4927	8577.627522	12816.28738	715577.6204	2151386.593	2213.961153	1005.830165	574.1867217	512.4212535	488.0848233	457.9546674	465.4743437	436.6946444
368	11259.78823	8174.022084	8340.117338	11828.07772	10556.66617	14665.36486	12578.56656	9122.360519	62756.55019	386840.2766	7347.239407	11039.93165	162544.8462	3204392.954	3309.774178	1101.860507	487.9341463	401.8058211	380.9194734	279.5823079	275.6813648	366.124432
370	13368.15474	8853.913562	7603.739977	12482.27911	10026.8149	13953.31649	12100.61478	8367.444554	27385.40448	457277.4868	6964.259047	9920.739056	25327.60428	3388781.26	10855.00357	1139.660609	648.1145114	522.5525851	435.9522454	555.2853057	443.0640128	348.6740557
372	15275.5908	9117.244134	7416.530857	10830.03377	10208.32051	12821.51372	13398.92881	8560.870012	15576.20737	475900.0616	10485.30152	9761.458317	16022.43393	2586955.812	122614.5822	1213.946191	647.7945142	391.9711708	395.3690525	406.7360572	431.225597	365.6744077
374	13737.42289	7591.851066	6746.821796	10179.38143	10126.44033	12751.15092	12869.37517	8128.657888	12535.54954	404624.9519	21186.02415	8078.216061	11584.632	1511492.629	468385.0171	1820.47993	798.7276441	404.7635275	294.4046	376.8433767	368.0006393	319.6881086
376	12632.45177	8692.456255	6258.798623	9657.756892	9661.942516	11830.42136	13637.39804	8127.895565	10299.59601	258238.8191	46417.24232	7607.806345	8875.238975	553686.0576	1069807.328	1892.319312	793.7061735	404.9754691	380.2531141	450.6925808	513.8504509	333.4819518
378	12379.19322	8222.853596	7178.283507	8652.014769	9384.216928	12662.73461	13046.66596	7868.837428	9084.547011	143710.522	95910.58039	7011.213459	8704.597338	131713.5701	1659782.647	2671.895514	852.2614324	551.4387826	391.7413321	339.638616	389.8792196	334.0519441
380	11883.44832	8360.663866	7106.34153	9072.621277	9891.178579	13266.28461	12570.08613	8065.283005	9181.03056	66754.44809	144439.1618	6095.831543	7886.573255	22004.33146	1927988.893	7774.515756	921.7765606	530.1391884	441.6061862	336.5835464	419.5913638	377.8552988
382	12972.60797	8965.286769	6155.630028	8311.983691	9515.469619	13097.57822	12388.54415	8941.771438	8869.322896	30575.06568	189343.2575	6276.525301	7672.644087	11987.07501	1591605.156	88814.74774	877.270822	456.7286711	383.3932456	426.4440128	426.2855276	344.7712384
384	11493.83238	8584.76276	5971.779957	8654.396206	8952.297903	12527.58678	12936.42089	8715.493011	8638.373444	15323.33503	214176.9156	7520.788599	6784.40004	9418.262955	922342.1611	405686.4391	1145.61229	501.4949646	511.0843408	461.5208513	326.3909208	281.8879152
386	12988.06199	8319.011233	6480.487532	8942.599726	9051.932106	13151.03839	12989.71431	9047.572712	8055.612388	10697.18661	194930.5562	14152.23863	6069.779795	7734.125977	373918.0979	983965.5714	1840.087636	567.2931263	437.1763981	523.2156421	334.5508503	245.2761375
388	11690.69044	7720.646297	6765.503185	7909.034756	8849.971612	13199.73571	13053.13298	8827.661516	7745.233955	8193.22419	140034.0502	32173.34677	5121.678199	6856.714057	95606.73975	1442459.148	2551.656075	583.6610871	420.2421994	485.2114093	252.1681589	321.3384462
390	11923.02361	8624.082326	6224.769187	8317.592553	9539.215912	12506.77451	13126.37521	8582.841022	8264.555642	6943.344679	93600.35355	69792.45386	4612.605391	6391.741568	14528.33071	1569692.658	6671.22022	700.0153309	382.6938607	586.749758	318.634148	273.6463169
392	12964.25148	8839.756724	6210.468023	8141.001381	10445.88424	13528.11753	13261.67726	9248.86032	8039.315675	6409.680722	49056.52637	115408.5758	4593.387121	6072.501237	6932.688516	1447943.961	87651.06503	758.5267649	487.8726418	495.923154	412.5776122	235.2008033
394	12832.64409	9071.309924	5801.547173	8009.319847	10559.41607	14024.78523	12620.3499	8803.84539	8261.082288	5501.136394	22411.98354	161676.3617	4157.607148	6299.236663	5458.099853	866879.2124	396148.7901	1034.52176	598.6948868	428.2603651	412.9872755	327.6804396
396	13640.20045	8685.186298	6293.642243	7589.34687	10085.10471	15533.50771	13743.18968	9136.074025	8234.50782	5660.087299	11640.7602	199323.8714	5321.645118	5481.819301	4429.864364	350014.8246	1045352.324	1532.374879	570.5325625	551.0213023	412.6376959	242.1701869
398	12878.01672	9299.233587	6770.03301	7556.176368	9892.233893	14139.64212	13875.4781	9203.861697	8290.509622	5812.877751	6853.473305	192246.1046	8933.140271	5221.116672	3592.214812	84666.15464	1717994.123	2046.929163	605.7167635	422.0285062	472.5357456	215.2425091
400	13566.5457	9144.528873	7047.710403	8103.315355	10413.0176	14432.75718	13294.36943	9288.204612	7739.874326	5236.408507	4748.060761	158041.8401	20161.03049	4671.298939	3330.940231	13449.21526	1970759.01	6069.184508	728.8451429	527.1572642	493.2799617	303.2894453
402	14262.75919	10024.25447	7066.713888	8763.030287	11163.26096	14522.41632	13337.96713	8993.435493	7302.848817	5339.393095	4131.274459	110238.4495	43494.386	4662.527237	3425.595417	7109.085635	1611296.938	86954.51796	705.5908006	673.4458391	477.6348196	249.5920769
404	14026.25032	9613.695907	7189.726928	8599.120615	11853.38707	14177.15615	13046.45977	8581.616473	8109.759943	4995.102225	3338.496623	61092.31829	76480.43163	4193.028862	3535.383176	5178.27154	1016528.92	422965.8133	1016.416058	632.3032224	359.5316875	333.8297604
406	13838.67023	9366.416596	7423.832635	7459.585367	11805.6185	14178.07136	13541.86147	8467.693969	7864.968077	5516.238242	3624.763055	30441.61578	117109.6746	4041.855224	3719.406059	4355.970594	402141.7886	1147983.039	1464.730094	778.2742103	443.426914	412.1682309
408	13513.769	9720.730275	6749.698926	7252.085368	10631.61945	14152.04693	14150.43273	8572.98712	7111.235255	5111.694613	3470.94691	14968.47189	158070.5631	4360.981898	3414.659847	3777.350004	92437.85192	1774758.295	2248.950901	637.561816	423.3326193	473.4892202
410	12720.43404	9341.203852	7029.569399	7575.745785	9536.736389	13287.41509	13791.95731	9831.843427	8049.235791	5246.512488	3440.550875	8010.171195	166940.8499	6101.838025	2837.26016	3422.161283	14314.57008	2106767.981	7115.616749	923.9682623	464.5812346	385.4194519
412	12949.76009	9580.153942	6867.543799	6811.154823	11643.48974	12593.83227	12901.9853	8993.402014	7684.511595	5131.304428	3538.936976	5671.942832	152678.3388	12240.69072	2699.372102	3258.479536	8547.204102	1704178.321	86441.40983	1070.545547	585.4504077	500.4773895
414	12905.44726	10235.16713	7051.491668	6906.237063	11270.21776	13591.99868	12279.11015	9060.50083	7555.376841	5239.843903	3828.264666	4581.578241	116893.9436	28801.84359	2634.140453	3412.389637	6412.931669	920851.6033	374171.5456	1368.141344	442.5896719	346.9019583
416	12711.59557	9835.178355	6894.977951	7366.548871	10499.78312	13615.22764	12103.45863	8771.149982	7174.40405	4972.284142	3689.328403	3962.073045	74356.67688	52130.48419	2433.978895	3285.462401	5580.457861	312466.1358	952912.5529	1904.638756	600.1466547	550.8114046
418	12268.57383	9122.942785	6016.115293	7601.497895	10398.46336	12931.61402	11338.62484	8550.114901	7290.38219	4865.87348	3268.144665	3237.922	42110.39129	82841.72659	2284.662878	3032.235488	4528.211375	70744.2145	1489505.074	3475.785591	598.7817417	407.3959927
420	11380.77985	8883.74871	6429.067897	7592.328768	10195.94832	11782.06015	10350.61026	8912.19502	6853.575356	5481.838551	3408.507142	3192.458839	23786.08015	108320.1136	2421.117352	2982.873725	4030.589238	12499.897	2100081.444	9698.31503	921.7188876	461.1284775
422	12092.14119	9454.365244	5901.355919	7352.191107	9709.642832	11361.7097	10306.50493	8860.986984	6610.550996	5150.620696	3349.883526	3019.128553	14137.33955	122329.0894	2905.199782	2718.541727	3933.312658	7558.735197	1651670.211	140782.5667	902.6646978	395.4753801
424	11163.70401	8398.124454	5923.576364	7225.388197	10159.82506	12587.58796	10084.94794	7605.430404	6286.733136	5671.731052	2997.627165	2904.988246	9951.670266	121087.0395	5089.205213	2226.354506	4211.399184	5595.553919	925721.5195	587945.5415	1243.560064	352.3210303
426	10921.91647	7970.945134	6049.408017	6242.273882	9158.393564	11973.20253	9055.964569	7382.755335	6465.32437	5201.674835	2742.717785	2881.413885	8567.627857	100762.5339	10738.29493	2196.352929	3981.198145	4658.399381	325248.9002	1369152.628	1765.980126	497.9404717
428	9623.428281	8226.974679	5602.544192	6361.504387	8974.451639	11306.52843	9086.930508	7581.170301	6273.273073	5042.517054	2939.619503	3046.91699	7588.330107	71587.05085	22420.5622	2121.743495	3630.399118	4186.559215	68897.25171	2112876.677	2749.923762	604.9016709
430	10387.50602	7734.884019	5404.076529	6172.104611	8580.539636	9859.833312	8791.000095	7195.148998	5979.64785	5232.215476	2857.770164	2918.064973	6941.682105	43480.54624	39418.50595	1903.992845	3291.750095	3562.765848	11112.31974	2306475.761	7367.917833	624.9469736
432	9883.007261	7690.169089	5571.002442	6564.146212	8131.515933	10437.46968	8533.44255	6661.873112	5836.347113	4949.836932	2980.531247	2734.885552	6581.703284	21513.39869	55087.15248	1664.678272	2915.930987	3442.271404	6846.465844	1807842.316	104301.5555	801.1662051
434	9869.557954	7105.045288	6064.987975	5679.406206	7256.238802	8846.352298	9258.607339	6598.676054	5767.500181	4869.084385	2852.333752	2849.219218	5978.942654	10820.27676	64628.8494	2075.659655	2688.339655	3231.914974	5475.20131	1075511.76	507295.2476	1057.429722
436	9462.177092	6847.195538	5141.758552	5914.140421	7297.644667	8708.627431	8349.896007	7077.487849	5921.335481	4964.613618	2806.393358	2842.407964	5501.824863	5846.866974	70064.5721	3276.139833	2651.382834	3431.15452	4364.670106	402605.3805	1221375.899	1414.097449
438	9915.462953	6972.144377	4728.39506	5938.578333	6588.669629	8187.312211	7917.109096	7387.889406	6183.784909	4396.088198	2710.520577	2677.060022	5463.05937	4380.13149	66937.11802	6068.981683	2554.371074	3310.349817	3577.467194	92251.5847	1902773.492	2283.133861
440	10096.92834	7251.866266	4804.450181	5246.27839	5966.937503	7845.61457	7386.811898	6779.148885	5475.099691	4419.688653	2580.395798	2763.215565	5495.775834	3700.849637	54040.87726	12102.90088	2355.101257	3089.258946	3236.193558	14618.24367	2221093.671	5500.723173
442	8286.073979	6169.473808	5011.717664	4474.690516	5609.389403	7420.104749	7340.236769	6156.113982	5650.840302	4213.828091	3245.559827	2468.294244	4791.192199	3106.02073	34005.37347	21614.73562	2109.224771	2713.707699	2570.288734	8384.596216	1686459.52	78275.00325
444	7981.757488	5971.594674	5032.668381	4445.736052	5247.788929	7016.882206	6888.103701	5513.063044	5113.813182	4097.020478	3280.554053	2899.761184	4373.742202	2747.757557	21747.39116	34518.66457	2075.574432	2522.197097	2496.347857	6454.356165	1041475.395	326682.8389
446	7814.804475	6480.260495	4809.196473	4579.044985	5107.072184	7359.857025	6712.701707	5350.459077	5426.187813	4292.745804	2916.729215	2727.638846	3837.94842	2514.107516	11317.91019	53566.608	2169.997565	2379.45888	2439.197528	5098.416545	383848.9775	1003612.541
448	6375.724009	5364.818325	4803.560366	3967.010155	5243.229057	6763.427484	6395.37632	5394.508065	4743.959983	4236.78191	2930.336024	2852.707276	3867.023655	2470.222857	5745.085806	60858.7393	2952.308465	2221.97272	2592.015843	4392.991287	94458.62083	1865594.166
450	6499.936683	5479.314469	4792.919163	4023.715084	4893.150033	5983.478853	5756.081713	5182.317841	4539.88506	4132.185337	2751.217103	2656.764008	3434.739053	2443.328692	3454.430594	64046.46624	4827.065825	1994.521509	2603.548539	3965.425855	13647.03402	2387451.28
452	7351.728352	5230.695212	4736.652542	3805.166052	4869.188219	5883.0527	5543.877895	5553.049837	4604.615649	3775.812779	2832.41672	2855.8492	3447.264167	2424.58505	2568.006053	56082.34081	9608.404381	2207.599002	2987.580352	3425.240149	7680.506727	1954550.455
454	6311.7022	5107.871025	4279.906948	3660.163212	4544.442323	5902.183805	5245.433773	5392.647229	4514.095408	3614.684889	2896.205881	3056.444169	3466.966896	2514.624355	2112.76927	40798.32941	18941.09035	1923.526137	2678.087452	2921.522787	6028.041272	1066275.597
456	6482.805873	5166.906607	4194.935964	3387.392788	4129.296184	6030.725778	5619.067987	4688.720961	4404.114335	3582.690491	2591.392815	3032.179793	3302.53562	2406.21124	1966.363766	29366.28528	32720.36318	1916.040599	2777.384562	3176.657585	4524.447565	368542.594
458	5769.999909	5557.607071	4444.529982	3342.546064	4341.505375	5977.276504	4994.344989	4840.957375	4020.237865	3701.064236	2693.535007	3053.51009	3221.309979	2383.110074	1839.583652	14578.01994	49481.04207	1807.631818	2406.487662	2877.659169	3606.181611	80491.1054
460	5775.898014	5089.062461	3960.907147	3379.179802	4355.110987	5710.096166	5393.219229	4978.023573	3978.008287	3660.94947	2738.468471	2862.748024	3095.988345	2419.359772	1466.298112	8624.620346	64754.4235	2289.759582	2549.457773	3178.735931	3066.728925	12312.15483
462	5818.612958	4771.943334	4017.465913	3077.247745	4066.588764	5246.541371	5056.350435	4937.390673	3981.215222	3313.915308	2708.647609	2851.331913	3051.571597	2376.949715	1435.897087	5246.709222	76469.78176	3242.652755	2353.439393	3426.377416	2831.575876	6454.033025
464	5875.081282	4749.796875	3774.545635	2983.863628	3946.801829	4948.290942	4561.531088	4805.253414	3812.002705	3419.529805	2479.15225	2763.901927	2991.431848	2273.628126	1406.939066	3078.902071	74340.6611	6234.228755	2741.050062	3277.881988	2740.972783	5151.028635
466	6533.366038	4351.897966	3589.976164	3158.284129	3764.289281	4857.277218	4389.674805	4510.34743	4324.040319	3335.24372	2504.128239	2829.76831	2912.737962	2265.824461	1498.10074	2209.814833	64037.806	11854.53861	2336.015647	3124.812839	2624.050511	4337.995188
468	11457.54511	4200.332084	3469.532284	2893.438532	3992.262397	4238.646629	4324.815935	4626.916886	3822.343971	3439.068398	2609.249215	2768.333599	2886.230859	2188.749347	1490.082947	2156.964821	44390.85265	21757.50062	2314.893644	2621.070209	2827.033419	3852.92469
470	28834.6011	4052.365701	3726.717426	2868.574484	3873.085625	4513.671869	4413.030509	4515.061083	3912.261443	3311.89947	2493.636128	2656.846166	2800.231588	2286.838019	1536.394869	2025.588683	27878.37751	33253.86873	2361.068963	2771.683076	2894.85469	2898.746867
472	65737.03117	4189.912806	4292.390758	2509.297195	3443.093165	4195.369062	3962.120046	4188.014099	3901.71129	3081.143239	2629.681409	2677.545676	2622.596109	2426.864513	1415.780163	1876.471991	15955.64497	45711.75274	2285.512641	2460.511749	3189.817451	2792.104754
474	122424.2023	3788.689188	3663.51836	3016.476993	3455.981239	4173.043955	3966.863094	3948.538005	3992.399159	3020.061411	2247.831432	2485.210288	2489.409563	2484.926139	1345.92923	1942.724303	8832.104055	60587.48248	3406.116975	2581.903688	3155.018547	2956.088522
476	196495.4173	3783.69421	3583.246398	2687.515682	3608.126845	3755.342185	3829.729557	4020.261018	3680.134603	2846.808232	2629.980089	2502.101033	2301.82943	2477.681423	1421.032943	1776.253078	5450.421101	65103.01198	5523.274259	2738.688688	3309.087907	2851.024857
478	285546.1248	3548.153564	3577.268652	2594.842028	3398.898813	3956.133641	3489.735907	3846.423796	3598.681556	2991.733804	2264.527916	2171.467843	2308.036699	2513.583655	1332.093695	1976.618348	4164.844278	62307.04659	9042.47198	2562.812766	2398.166048	2630.568803
480	351377.4346	3516.534287	3378.303827	2574.151904	3499.637793	3694.377513	3703.636594	3969.093288	3456.251752	2810.858653	2292.758173	2274.919653	2419.414503	2213.496935	1382.500309	1976.708147	3622.291741	49310.34576	15838.18292	2128.32155	2785.402945	2524.425746
482	373259.7255	3518.355712	3581.877459	1962.991631	3367.841287	3390.392546	3743.873264	3656.354714	3431.99989	2836.094766	2335.557738	2106.424953	2084.879896	1989.183671	1317.148492	1791.035215	3459.451919	33738.10014	27529.49526	2384.393201	2660.669853	3153.498652
484	346537.6323	3756.814439	3198.775417	2244.749825	3193.030088	3520.723285	3567.903314	3577.94572	3497.304964	2665.925417	2306.994243	2190.195697	2062.274977	2083.656445	1177.834042	1990.798802	3140.595601	21448.63963	39923.07042	2613.845888	2564.9698	3257.881414
486	282961.3641	5865.406186	3327.271041	2066.50383	2847.014538	3200.755049	3354.858757	3441.181171	3342.70929	2510.980056	2326.399098	2158.613839	2217.263196	2168.221063	1217.960448	1855.754637	2893.479135	11700.16731	52828.75906	3005.78515	2418.604091	3037.264258
488	199532.3361	16823.27797	2777.061563	2067.711775	2603.506527	3019.228319	3415.539508	3786.446958	3073.641874	2498.658289	2038.626168	2255.624291	2126.592097	2177.572465	1317.274393	2101.767577	2491.844864	6800.671462	63725.82986	3963.183709	2688.145108	2940.556681
490	117121.7317	44323.05243	2572.261135	2066.756019	2783.238304	3155.649426	3122.021706	3723.863758	2923.33193	2402.902263	2010.950165	2104.61134	2168.880425	1958.405625	1252.346552	1922.153976	2510.7527	4030.783262	69115.7974	5701.910557	2759.927415	2779.351238
492	51854.37312	97841.44529	2574.273306	2220.881726	2712.135717	3032.592856	3040.47584	3287.203226	3376.80541	2202.480573	2074.158977	2251.312308	1938.04057	1779.123008	1308.44967	2092.783159	2257.674883	3023.734077	68062.79897	10126.36324	2688.70494	2558.758469
494	19166.60503	168644.4192	2574.330823	1860.76474	2765.967928	3031.680778	2902.544515	3581.702756	2913.102684	2307.490472	2002.866705	2102.467366	2108.362819	1751.510684	1144.160864	1934.366101	2358.989428	2640.874875	55846.16414	16142.42957	2114.954274	2494.091783
496	7742.070507	252789.3163	2903.08702	1640.795617	2224.807884	2927.117017	2769.11631	3212.037031	3166.327573	2156.540451	1959.268674	1886.236121	1721.467848	1768.427186	1301.818904	1640.104554	2184.095614	2364.250394	40295.20319	26596.93274	2222.868742	2658.14206
498	5759.465592	336736.7296	2596.972004	1902.834596	2214.047673	2745.007843	2654.406875	3100.571575	2934.426648	2298.492615	1705.765042	1719.808259	1866.534746	1719.159383	1483.581531	1693.295822	2024.458895	2049.980951	25481.09371	36063.11126	2213.931431	2590.981847
500	5438.151589	394084.1422	2774.932207	1950.694453	2173.385596	2845.908651	2531.766257	3118.761127	2855.777882	1990.040073	1820.175857	1846.012921	1760.567493	1755.736103	1490.216161	1614.075543	1985.398522	2124.289183	13865.6178	44793.52251	2623.835924	2681.033977
502	5167.786428	394499.6316	2859.707652	2030.416594	2274.808691	2558.360634	2316.893625	2838.767849	2844.49681	1867.86721	1715.320614	1835.851497	1851.682012	1745.202489	1523.867338	1520.459318	1784.673284	1865.865078	8280.683893	53322.99298	3767.113266	2694.0135
504	3768.130056	355352.6175	3246.861821	1762.768604	1977.852956	2382.366398	2288.177179	2791.764146	3080.029934	2117.507756	1718.723584	1920.941274	1789.029678	1634.43716	1431.421412	1542.467288	1629.09053	1936.487892	5593.971122	61861.24599	6195.115785	2576.080668
506	4872.93234	283313.6548	5675.086314	1819.09407	2119.866147	2671.919967	2306.382246	3022.290392	2911.731491	2104.666517	1733.504261	1806.807795	1811.167622	1615.628972	1369.225315	1562.38487	1831.80924	1692.725733	4229.173212	58119.02838	9354.039985	2320.583885
508	5928.83274	188448.4399	21319.48665	1903.21165	2124.947461	2663.40194	2303.660457	2852.81868	2652.227898	2042.133868	1680.340022	1804.651435	1833.869736	1579.661376	1271.494836	1438.939795	1632.490104	1564.384351	3955.126468	48526.73821	15466.09229	2507.760882
510	8172.427145	99619.4315	64375.78807	2091.279323	1894.621928	2642.856751	2296.83686	2575.272207	2661.326119	2062.760217	1674.52995	1748.368145	1772.624004	1588.909144	1254.094183	1165.276357	1455.168142	1565.355549	3782.370234	34630.27318	25348.56095	2412.854786
512	13564.47411	41602.68996	148803.1685	1756.849345	1801.22271	2477.932444	2032.199708	2594.864787	2952.014017	2257.352996	1757.768537	1679.632194	1890.97418	1659.803413	1389.949949	1253.591148	1746.767067	1526.394048	3078.829284	22165.25392	35226.35418	2642.229287
514	22992.23866	13436.77889	262107.6597	2029.265887	1835.354668	2514.153423	1993.838035	2515.975806	2566.9745	2210.208439	1698.944364	1565.051238	1784.397366	1690.222141	1078.11916	1117.315802	1571.568768	1467.075557	3013.183827	12310.18475	43644.84907	2923.34538
516	34579.26708	6287.695075	396723.5596	2120.838512	1685.301208	2046.780012	1840.040621	2563.77545	2710.174042	2231.802602	1670.417871	1523.31111	1618.731918	1594.681536	1230.307948	1014.591662	1776.906029	1500.293251	2466.31784	7235.706149	50350.93208	3653.773121
518	49080.48839	5768.143639	565200.4908	2372.113028	1903.874092	2235.255531	2000.625241	2763.240398	2470.798898	1967.500702	1700.691559	1545.299658	1771.688017	1682.176163	1131.927087	1120.330182	1498.73427	1384.13879	2275.266612	4756.935069	50146.03337	6170.247595
520	67166.62191	4986.206344	652050.9319	2478.602419	1811.49595	2245.153382	1756.139589	2462.087639	2313.613513	2106.422321	1657.394224	1576.749669	1809.97187	1476.074772	1174.311796	1270.822855	1624.381714	1485.061	2143.718167	4035.201122	50109.93178	10194.48596
522	78831.35192	4240.24608	692870.4936	2188.077197	1733.338454	2086.461071	1785.18285	2354.879183	2245.48298	2062.563561	1531.041952	1349.403297	1932.102362	1504.797466	1189.897736	1224.359635	1493.935342	1446.515038	2279.601029	3593.567985	41634.78638	16610.25714
524	90612.23773	4715.143179	587572.0168	2892.941615	1663.710049	2035.56961	1666.097858	2568.974005	2528.608237	1945.135957	1656.552231	1414.594476	1703.901447	1543.559752	1104.930377	1308.20214	1494.414904	1366.66151	1897.140689	3254.321552	29164.19926	24451.39956
526	87974.08193	4638.253921	439836.7017	7761.797318	1574.711255	2023.923631	1820.129826	1820.056476	2287.027243	1912.722384	1689.55811	1566.232887	1486.119599	1473.8485	1155.598612	1136.404643	1435.72435	1364.852524	1792.506379	2943.315376	18214.00909	34041.37818
528	82007.44624	4646.933819	283648.5753	33347.75148	1707.71049	2241.952353	1738.671064	2165.71194	2149.594363	2036.233332	1660.226769	1234.473637	1471.603526	1171.362365	985.3641608	1111.854662	1334.177568	1173.31556	1874.618171	2613.280448	10004.54097	43700.94407
530	66053.49818	5821.407214	133738.7849	104724.4213	1815.138228	1712.877608	1805.931222	1900.486287	2238.881417	2096.038142	1606.966776	1295.525336	1532.292658	1326.515288	910.1848919	1184.946746	1285.15195	1247.258484	2043.252406	2104.00626	6440.698528	47158.89392
532	50187.7182	9313.796019	51267.01966	225262.9949	1787.20313	1885.977924	1535.56403	2136.835877	2008.324918	1733.860656	1518.84893	1357.871975	1510.946108	1340.642845	926.2660608	1147.428998	1397.998378	1098.996004	1743.294651	2227.900374	4210.831628	47542.34637
534	32623.17549	13424.15973	14905.16128	384529.9441	2056.243983	2001.957594	1502.658093	2165.125312	2047.853205	1717.794866	1602.807222	1203.976334	1332.719503	1245.993134	924.1789551	1150.567541	1209.048618	1235.817007	1702.113888	1986.689375	3123.659897	45134.10696
536	20727.13318	25246.54636	7623.462159	561630.9658	2029.1987	2014.077937	1623.000355	1659.548108	2000.068193	1615.167982	1541.254269	1307.294132	1354.689276	1147.16732	830.8338397	1066.655583	1257.948614	1191.841664	1490.869673	1902.433034	3021.616049	37477.25568
538	9160.574658	40002.28855	6205.005552	743473.2067	2411.055779	2117.673981	1529.0673	1660.269405	2075.504191	1889.234463	1495.03484	1320.177334	1344.014936	1258.619792	811.135985	1074.510772	1054.461506	1135.516637	1496.987604	1716.173376	2565.202141	26529.45203
540	5489.879107	57090.92823	6124.096152	830064.0764	2515.103095	1750.916317	1657.690096	1732.337035	2005.621719	1462.716348	1368.292055	1256.094523	1373.740299	1203.401947	835.8439739	933.0528006	1191.60526	1238.351278	1641.278186	1512.448328	2249.81999	18052.29796
542	5290.849218	78761.2003	4918.043949	790294.6033	2752.583611	2157.674702	1517.536935	1733.759428	1925.20611	1750.716125	1426.001365	1055.921461	1237.457716	1234.205253	674.6787099	910.1602624	1236.090965	1014.241787	1593.037147	1533.887503	2152.145181	11592.98864
544	4327.812927	94976.82523	5207.197709	683952.0928	2947.746523	1925.537784	1562.183504	1565.208666	1979.521328	1698.617831	1443.319124	1271.932049	1375.412798	1199.085941	676.870127	939.8954451	1173.932395	987.7248058	1441.287714	1490.840855	1998.715793	6244.27735
546	4103.19267	103133.8241	4996.129357	536313.9702	9700.577928	2062.976013	1727.760401	1578.924515	1910.086169	1526.250434	1260.152404	1050.198019	1290.770269	1273.59529	590.1281684	812.4317119	1075.445758	1020.522548	1529.250901	1363.004105	1770.42385	4104.416314
548	3780.2614	105554.9688	4476.920444	364996.7946	46046.97595	2024.044674	1626.518792	1437.359548	1636.58923	1653.608759	1342.513167	1133.530724	1207.728825	976.6513724	670.5624702	763.2506936	1105.046921	941.3957645	1347.453327	1440.478956	1671.023609	2868.564631
550	2894.380009	103233.8838	4184.844253	197593.6629	136420.0697	2495.030692	1565.439353	1750.999989	1771.054476	1473.404715	1252.684054	1077.126519	1149.631888	1154.71402	733.3190698	814.0700412	1132.078298	794.3378867	1299.702036	1552.678924	1400.054206	2800.080577
552	3644.895368	88729.6785	4853.477385	75523.96045	293675.4236	2329.837868	1504.995367	1606.522034	1646.575799	1544.477393	1278.766713	1131.111661	1073.645306	1188.230355	669.5900529	867.7764242	851.4008963	897.0080692	1319.172806	1333.323897	1211.109627	2593.651406
554	1707.473234	74577.4184	6282.048906	24786.37906	510398.3927	2390.741949	1446.811111	1741.654782	1568.088672	1474.346206	1291.375722	1125.8118	1215.244535	1003.107986	771.6835213	852.7488799	911.5739118	842.3369323	1221.5495	1224.903565	1340.78777	2631.084389
556	1059.068065	52291.71501	10838.39538	10895.79208	775901.2959	2494.450579	1492.415503	1653.797704	1798.66567	1432.076908	1133.216772	1266.90313	1163.38483	955.8075761	717.573631	678.3635414	961.9519085	832.9266465	1160.692484	1453.196096	1159.098343	2096.363457
558	2129.96279	33142.93793	19768.30796	9107.143186	1015969.11	2432.89168	1294.315281	1427.284946	1556.007313	1282.166202	1184.704096	1043.477913	1062.823379	1023.581011	464.2403099	596.0328003	839.5550907	651.8872823	1141.700237	1106.741036	1190.781825	1495.571307
560	2268.724522	19903.17818	33759.31846	7549.788518	1081742.817	2827.110828	1324.03101	1524.54642	1652.124387	1044.694836	1139.354922	1031.09971	1043.806537	844.7292447	547.8682673	775.0132677	970.9682834	722.4607727	948.24514	1151.373173	1190.859281	1393.418873
