Wavelength	240	250	260	270	280	290	300	310	320	330	340	350	360	370	380	390	400	410	420	430	440	450
300	64573.9014	67600.2907	89680.3645	767875.6972	110642.3134	52431.4894	3942698.022	18029.93529	2201.984059	1098.581328	830.1072588	602.4714882	489.6181104	325.4814022	343.0528858	229.6357063	214.2770553	225.8639214	181.170616	217.1120711	209.1140061	175.2868126
302	76702.84269	71820.08271	90511.84322	525993.4988	190836.9136	37377.13438	3363758.596	188203.4575	2209.609397	1053.607189	838.3754692	534.7981406	448.0113945	327.1266896	346.1752298	351.2547777	219.7766079	243.7232081	164.5758121	166.7623337	227.9343268	223.3737536
304	90075.19148	74989.51162	96899.09038	315064.7497	341037.9654	34539.92806	2019858.003	795191.4977	2795.494754	1177.494555	815.3943184	481.7362327	518.5636538	254.8781426	242.3046333	259.8507815	257.2979877	160.1049782	170.8947981	173.3456662	135.8493998	153.3951575
306	94199.45271	85386.27228	97909.21724	191307.7324	528623.715	33740.34022	789445.1971	1953427.347	3580.456527	1240.192764	954.3723145	537.4553489	452.5603015	314.4053329	356.6074914	278.0638769	215.3343214	225.1021224	192.188094	195.9344261	157.1693042	135.7554638
308	93821.67122	82929.92142	103214.129	128901.3881	667198.0184	33146.41378	190980.8708	3105232.542	4748.446259	1370.038107	867.1294504	513.4687238	352.4071239	384.6766021	357.0074241	253.0259532	194.1569601	219.7894184	174.8290878	123.6928264	119.9815198	112.3451859
310	90052.60031	93357.92291	104727.0358	115140.5681	677757.6082	36991.97124	36407.83158	3500389.51	15773.40104	1606.722902	897.0090689	545.1217714	336.2224529	361.3909317	250.5926132	274.878284	209.5918585	203.0370334	188.2026026	156.1360237	112.1905946	84.26699376
312	98365.52863	90359.05778	101823.9966	108406.6475	550577.6898	53825.6912	22567.56232	2795076.077	158249.7369	1497.901956	879.0587746	585.11014	361.2122424	255.0913243	313.6210791	205.7666505	169.0585718	157.3913249	159.8978586	156.5957524	165.1729025	119.689277
314	104441.9844	94120.77572	104719.2769	100504.2488	368927.8319	101078.1719	18908.31476	1581789.649	628326.7336	1820.843828	926.8912662	550.3072837	359.1288468	213.3506974	285.2030509	263.7671208	213.3526303	161.6442028	165.6526489	139.9351247	118.7872958	100.4920687
316	91858.27667	91326.05426	101874.4843	96025.2565	212262.9624	192822.0851	17163.93515	580883.1424	1518178.146	2094.791861	920.3790134	597.3216773	368.0094933	296.8666317	262.9442091	278.6365095	153.9558171	161.5005558	158.2081854	161.6409216	115.8519792	118.8128201
318	82169.45932	93652.64882	98564.86319	89632.05356	117206.5008	308297.895	16132.69791	141215.1466	2404506.445	3439.116706	1048.573297	484.2062468	372.4554486	219.8544595	240.4669252	188.7084141	112.9576184	93.43448132	157.024885	155.3295498	132.3770965	112.539052
320	92695.44717	93688.61836	101743.6951	87105.92369	75491.48095	400245.8506	15819.394	24703.45644	2799091.186	9718.784993	1082.739129	526.1006043	430.4609737	294.6735136	189.7964311	220.5345292	167.0997373	143.860615	114.8363457	111.5551259	108.4773886	96.87156125
322	98391.08403	93735.50143	93411.71195	81966.85599	62384.96109	417647.9114	17751.59947	14757.94193	2379544.423	103763.2514	1182.569862	560.5533873	361.8723311	296.8088199	215.274677	211.4665255	161.3882943	166.0039321	121.9002382	110.9399059	129.1905357	119.4595505
324	87966.07025	89053.30818	94979.54375	80450.42973	57435.41917	356636.3883	29126.46921	13046.50544	1437677.756	458013.5363	1350.610544	620.8809	403.0952958	342.8482294	251.1778677	203.8039474	138.4317982	137.0362051	102.432782	110.2129693	99.54266943	151.8904742
326	80110.46003	96420.62637	93232.73448	75836.20703	52755.72649	246461.831	60265.07149	11165.90788	564819.5488	1147679.798	1689.494295	691.7691747	495.163504	336.0231246	204.2192077	209.7559847	159.6639733	157.7770781	112.6581785	113.1506788	128.3921162	79.45287552
328	95162.4161	87414.11615	83235.09152	75322.93856	49234.77403	140212.4604	118449.9448	10798.54694	137779.581	1874703.94	2597.334281	739.1200542	421.6154204	330.120267	261.7714405	179.6379707	163.1630221	115.2089153	90.5661431	127.7810818	96.40548891	116.9935531
330	90041.75004	87961.44539	80058.29227	68227.78539	46061.64501	69636.08005	193451.418	9327.275797	20944.64735	2167920.414	6676.90906	797.9895815	444.7524087	318.0960216	256.0679035	148.4927701	153.4275725	123.7449885	94.95941213	121.1827843	80.57784235	95.71343923
332	82086.21925	81020.80755	76784.35439	62441.25181	41961.57032	36425.04338	256148.5485	8864.112224	11464.87373	1796870.33	71857.18429	869.5771164	449.2680669	295.9197628	209.5275071	193.8630556	132.3060838	123.3896879	133.1984764	101.6415657	87.72053361	92.95100925
334	77777.48427	72407.52185	69951.16115	57982.56884	38120.2697	24758.5869	273611.4721	9592.339145	9383.005883	1092972.824	319061.8824	923.887303	387.0170702	319.8477565	249.1893093	149.349847	136.8439283	132.8675354	105.6763177	119.1296241	87.50827219	93.29485532
336	74502.11784	71358.62191	61822.20284	53143.41113	36935.03747	21143.96424	235812.2388	14879.53022	8184.101397	448523.8977	833235.1259	1133.506983	442.3240913	326.4789626	209.5971996	128.3182459	144.5259599	98.28607256	102.7758226	106.247261	78.94593001	47.32855163
338	73240.50835	62320.04686	57435.94619	47461.36117	32977.15892	18480.10205	164068.1862	32317.18881	7027.32011	109961.7546	1404149.84	1630.748481	437.910082	313.0152372	199.2422742	151.1997947	122.9691485	103.723011	84.08689133	96.55700349	81.56447584	84.40077927
340	61882.35777	60960.50624	53947.23907	42655.17132	29803.3964	17032.78356	93473.2736	65653.76949	6416.467682	15795.99497	1583761.055	4107.081738	470.0065029	316.4607995	226.5599015	153.9613849	124.9319187	80.41278032	91.14427853	72.15821337	76.17643811	88.21651969
342	59114.39762	54110.62211	46981.45595	38847.24769	28126.41133	15923.85548	44223.1553	111930.7443	5639.572734	7412.784791	1308472.464	46769.42195	544.7587279	277.6030656	163.2448987	151.8631733	105.2584667	91.13106711	82.15020124	69.72792849	60.37344296	76.75441333
344	55723.50225	49309.08207	43083.12369	34484.66409	25303.6721	14147.59409	20522.40913	151475.8321	5113.028408	5944.796691	757882.799	213300.5729	643.4138294	299.2380441	198.5640813	141.3468957	93.32862901	96.52014416	79.41217464	45.75693821	60.12136888	55.48961087
346	48436.02532	42514.5489	39968.28036	31830.96723	22822.35954	13681.0098	11304.11029	166390.3587	5466.566796	5361.477641	287065.7449	536257.4231	776.9458544	291.2052179	217.7542107	134.4628781	94.95883631	78.49950116	78.51752259	62.9571029	47.33099582	63.6202664
348	46800.35145	42509.19822	36691.59224	29936.10915	20596.81456	12793.37645	8441.271736	146270.6469	8242.061135	4720.178659	68022.19311	850687.2687	1184.668429	330.7517967	185.0789917	163.060843	89.34612055	76.85960411	85.0757576	73.27107681	69.33296795	51.85023363
350	49247.75609	36829.23964	32997.38753	26178.05446	18075.0209	11491.08584	7603.265384	105817.9772	17479.90812	4403.730304	9720.074959	975096.2338	3178.084889	354.8438776	202.7233408	122.2870839	121.3678822	80.51337391	73.37462298	74.51490517	51.17598467	52.65437458
352	40651.68637	36753.83603	29235.3114	24477.19055	17101.41201	10955.86368	7064.314101	61966.55254	36657.86867	3903.306823	4980.782085	793584.0258	37452.96704	395.4760228	202.3391972	165.3209119	110.4365891	75.32645767	75.90891049	49.52773568	55.76817733	63.13709549
354	36762.27061	31201.50884	27040.64569	21436.38625	15279.654	9907.517523	6269.604987	30105.67782	64612.37128	3592.134495	3929.317758	467162.1212	164457.8686	495.6565605	206.0378612	132.7712695	99.3602912	74.60095948	75.71528387	68.08150795	57.63836878	49.72738323
356	36098.24177	28499.76198	24510.59596	19049.29231	13694.29886	9614.838115	5990.798616	13174.82824	90721.43412	3300.618054	3206.036244	174681.929	409605.8575	606.7708499	223.2517438	141.3124575	92.84396809	71.81562044	74.07208244	57.02578809	47.84910704	38.54214957
358	31355.18179	26646.24343	22495.55423	17163.76998	12984.22876	9485.756247	5583.776168	6846.65079	105914.1498	3463.842838	3104.674695	40401.05719	639295.7545	913.1658853	219.8005686	119.3241637	108.8470033	81.04295511	62.78308796	39.75620207	42.16579883	36.72536483
360	33057.26934	24756.69702	21049.42232	15959.2934	12091.67453	8709.441816	5460.97117	4879.035011	99999.88547	4825.704913	2991.854182	6002.254173	710481.8444	2827.285147	231.4528892	143.1364731	109.1904435	68.46804019	72.06587608	61.94326481	42.34488192	39.12805218
362	33622.29682	23872.94723	18080.47117	14059.32988	11020.28782	8187.287603	5284.385781	4098.676261	77790.88777	9931.376982	2785.942746	3322.960386	574566.2567	32093.90391	295.8311459	142.065074	119.7509115	76.57991548	72.26323502	56.8306729	47.73865313	32.82628821
364	29460.69592	22105.92182	17800.87133	13457.81061	10195.07861	7672.865407	4952.849625	3784.691232	48438.41865	20551.52515	2535.074448	2590.210692	327606.0067	133441.6241	327.9866272	147.2800314	105.3444318	75.24212411	56.52219605	53.03990191	39.83848211	32.14905966
366	25118.68678	19315.2552	15974.5969	12321.57851	9401.495977	7505.462704	5130.938004	3826.979828	25678.36008	36825.20646	2293.994657	2244.314374	125755.0785	321340.6502	380.7451358	151.7544355	100.0245128	62.42399425	63.64831294	57.35382882	43.76120295	26.19200883
368	24215.25698	18083.5495	15291.03447	11341.03575	9196.22377	6859.529224	4972.906647	3591.184018	12267.23178	54870.76353	2282.763754	2094.056034	27964.17422	490472.4955	667.2361955	173.015911	85.3482975	66.55627295	49.03228182	47.08342997	31.86019587	35.8459108
370	21705.41185	16956.1414	14598.93388	11385.62628	8504.888061	6674.435582	4977.030188	3583.750832	6135.512352	67361.4572	2364.874595	2133.575098	4277.312725	543825.6742	2181.13212	189.5932203	129.0408449	92.87780252	56.68727154	40.61752176	45.40310802	31.41154598
372	20341.05653	17055.76472	13129.19591	9727.197527	7851.728192	6334.841634	4700.337524	3580.469171	4158.589357	68285.75345	3107.259325	2027.207111	2552.759246	431592.9266	23232.29886	200.9664937	109.8853174	74.82952948	52.5541412	44.73450955	45.48180961	27.68325457
374	20943.69324	15813.49994	11586.28966	9291.960358	7460.71003	6148.336184	4798.081259	3533.205084	3665.637678	57022.83413	5331.715168	1898.407263	1940.627759	251950.4271	97214.25291	216.9435583	106.7624206	75.64807366	56.29988822	39.44165824	34.98094421	37.65489367
376	20189.32304	15055.7324	10786.3195	9172.524195	7342.106855	6026.419194	4808.281005	3536.820952	3311.409238	39597.78485	10887.94717	1824.533483	1765.317622	98548.03772	228893.37	315.1056178	128.4865174	74.80697037	52.89634706	47.44942947	29.73732335	26.03850682
378	18547.50009	15409.68215	10564.16424	8297.554167	7174.396244	5845.347918	4845.576372	3702.307504	3151.417855	23326.26447	19875.25898	1776.204863	1599.499416	23005.76628	361458.5127	483.9124155	139.0751636	70.39990759	57.50571849	53.25186096	32.79446508	27.9172175
380	19326.98328	14519.26015	10040.12701	8177.139231	6902.151308	5607.757282	4640.375827	3712.001541	3178.897231	12227.90615	31037.99211	1717.24795	1596.06882	3472.141716	413685.362	1332.301497	135.9229185	89.16233487	59.60964968	33.71709118	43.04631676	27.58046702
382	20012.321	12713.41726	10071.682	7585.526607	6413.780481	5661.26434	4666.386799	3717.442549	3200.810237	6365.864586	40503.6148	1764.478262	1550.733046	1966.34728	351702.5783	15252.69297	152.8163323	75.58258572	44.33999779	50.85883024	31.30973244	22.81844352
384	18964.04078	12559.19113	9143.450075	7562.696473	6571.967778	5571.253376	4688.003034	3747.942985	3235.322351	4145.265429	44715.49704	2000.222091	1555.229466	1527.772376	214207.027	71259.98311	188.640283	81.67640677	66.28102102	41.4942392	28.29888623	29.32102556
386	17637.08486	11857.08367	9757.70253	6932.753286	6413.842782	5486.056176	4442.523357	3824.395208	3220.993304	3413.346132	40962.47846	2991.113474	1458.923779	1296.115537	83814.90915	175834.592	254.0373703	76.63500344	51.58022508	43.38522018	35.02588408	25.77639028
388	17101.63078	12650.15774	8389.294812	7231.745798	6053.705846	5457.991641	4687.706046	4002.166248	3264.134693	3192.176537	32247.69632	5742.746912	1416.992622	1164.184401	20403.33589	288780.3356	389.8371338	86.56806329	64.41612811	55.70952856	31.11742304	27.03557871
390	17310.49608	11694.55992	8009.754178	6507.231967	6099.14121	5334.610392	4743.527714	3984.299349	3341.872269	3079.894027	21095.64395	10708.44469	1369.237494	1181.473239	3017.617855	336442.6492	922.1948125	99.35950288	57.90323	55.80125002	34.84070799	22.3844439
392	16979.32836	11251.88229	7859.709904	6602.265885	6022.187854	5284.777939	4553.916137	4139.944148	3446.991273	3007.516953	11997.90832	17715.69918	1358.493668	1132.69758	1513.343115	291571.8554	12036.39798	124.1393224	78.47986199	56.51595605	34.31117703	35.00733332
394	16967.50787	11208.22322	8324.085348	6537.062462	5675.56806	5425.032884	4714.145387	4288.558649	3476.733973	2965.363064	6673.150983	25309.69603	1419.698467	1205.529414	1157.681699	184303.2566	58776.48935	151.4355303	71.70763085	59.62490566	41.69771746	27.95537716
396	16160.57553	11616.28995	8140.067139	6179.226323	5498.024329	5184.62277	4631.476891	4239.673585	3529.249209	3055.195975	4068.941422	30227.728	1535.776534	1106.988144	953.97934	75739.63168	161421.9053	197.6563451	81.95545385	41.85740326	39.28322158	26.16279375
398	14379.11053	11141.49574	7930.047102	5859.322509	5733.591304	5519.943139	4690.78819	4239.80627	3558.085124	2993.402828	3246.798691	30406.17574	2078.223386	1072.445358	832.421917	18378.55723	265199.4807	334.3484299	87.40701529	51.11018186	39.36788597	25.80620252
400	16041.35438	11240.25674	7485.089483	6227.267032	5707.165264	5412.052065	4728.684327	4255.685392	3814.488021	3113.644744	2985.940728	25692.53496	3555.368368	1036.079369	865.8044771	2498.692832	310351.8606	758.216784	103.428389	46.02225661	37.38574117	29.54973568
402	16396.18724	10710.62837	7436.190541	5969.793875	5623.0381	5511.69501	4859.254392	4185.262396	3711.172807	3166.913277	2802.594525	18199.28261	6652.393803	977.0818122	835.02463	1252.45617	263739.528	10905.24203	104.5422169	61.59315747	34.54107275	31.5626799
404	17033.74525	11324.5212	7294.170308	6144.170751	5537.311234	5068.488649	4797.216994	4336.754074	3661.6326	3195.070567	2710.581675	11219.62777	11497.1761	1019.388152	910.9730269	981.2823655	160395.2857	50995.65005	129.0430207	60.19115795	37.19616326	31.10566494
406	15403.89382	11077.11005	7342.044719	5905.54091	5417.694366	5294.269143	4692.328218	4254.207371	3648.622876	3207.204921	2691.506299	6268.32586	17262.14824	1007.793428	823.9654495	777.7966099	61301.25296	132088.7166	182.8849758	54.06089807	37.85062845	35.97404174
408	14791.06268	10592.65693	7409.501199	5579.647535	5276.583458	5133.975364	4805.889145	4226.297749	3803.090606	3238.571166	2694.721817	3742.690491	21735.56379	1048.72604	800.9088341	698.4229753	13723.50116	221444.1561	314.0287404	72.46453109	37.69733937	29.85279557
410	16840.88822	10508.16275	7087.860807	5528.678537	5156.226014	5057.442943	4614.208958	4311.625954	3779.728438	3191.768787	2627.196634	2724.542629	23233.9024	1347.027202	776.0979414	656.1439523	1912.988398	253881.2731	849.1342827	81.88368418	45.47593627	27.22773239
412	14688.28895	10500.11987	7124.533004	5603.317108	5222.032499	5162.706361	4664.307567	4129.199849	3827.121966	3321.647516	2626.259174	2380.930875	20973.74518	2201.065162	771.5963005	673.5444065	1082.875617	215275.6056	10985.11874	94.93686569	43.93098839	39.33385905
414	15856.07867	11153.85208	7023.576982	5370.050096	5326.214151	5093.448871	4621.959469	4257.034052	3879.355549	3156.631571	2655.137962	2207.385356	16159.84167	4191.871029	740.008448	691.0616836	831.2020136	129369.237	50392.07946	123.7133232	46.89633942	34.1616663
416	14615.61514	10793.13584	6931.415151	5559.342029	5093.573028	4909.891655	4670.090963	4130.591675	3824.90861	3282.058714	2667.996951	2131.038024	10633.55277	7367.255815	732.8993996	685.3783135	666.6973655	48029.91566	129584.6525	163.2493261	51.14415557	30.54338446
418	14078.90898	9874.359201	6347.926739	5447.641208	4903.330183	4945.494086	4647.725984	4054.875049	3697.406935	3235.303229	2690.437319	2099.957184	6211.239991	11508.18699	723.9513134	678.6987184	576.7861517	10544.78436	203758.468	258.9656304	53.10228408	35.57228821
420	14663.61731	10101.58972	7284.891577	5688.099436	5222.169617	4799.142769	4405.668256	4134.453231	3662.50734	3284.98167	2601.456053	2016.591023	3554.677373	15391.25744	734.4124142	636.9618323	520.3967817	1507.678527	230757.8908	775.8288538	65.82540317	41.38684797
422	13685.23893	9567.75001	6991.020205	5091.579589	5012.848622	4837.668456	4499.004552	4014.342126	3684.979979	3185.231574	2648.732462	2049.07852	2389.586895	17712.56225	894.8458134	594.4174669	535.1879716	858.6796002	187020.5662	9938.789044	74.49042236	35.66236396
424	13355.70865	10448.11042	6500.248665	5429.271697	4873.759812	4665.421919	4268.08479	4015.148649	3515.811395	3182.074491	2529.403334	1989.654208	1930.281636	17288.45657	1318.125029	643.1416674	552.7320384	673.62316	108076.8005	45677.71784	112.3638506	52.00173162
426	14112.68446	10257.88212	7101.973674	5254.925238	4664.110478	4667.27364	4180.679193	3783.458425	3484.768391	3068.622697	2460.135334	2035.679259	1751.979315	14378.59482	2322.535663	614.5642267	581.5913411	575.8189424	39390.22373	112146.1695	144.880516	55.17227534
428	13660.93339	10115.49901	6415.155509	5322.8665	4688.9337	4487.056605	4090.506642	3778.401901	3512.22878	3148.54333	2523.033342	1950.11314	1625.407157	10338.08939	4222.186731	608.0243092	570.3064296	486.81961	8688.669024	180652.4424	221.6835127	56.29113777
430	14516.23382	9126.71504	6949.891881	5224.978411	4737.999232	4331.933306	4092.29524	3852.405055	3377.295356	3058.109775	2447.294343	1928.96725	1547.692102	6482.448064	6879.232618	607.1748686	570.4191448	441.8969179	1213.529855	205021.7255	592.9746027	57.85306456
432	12491.46151	9765.163894	6659.121162	5101.053483	4716.448744	4423.654776	3992.597218	3607.787973	3386.099135	2990.819564	2436.60545	1928.091843	1495.833993	3856.626864	9914.95911	597.0187551	556.8797604	452.4022976	718.6644943	171284.4989	7668.85609	71.47250873
434	12816.3827	9677.394509	6829.487901	5279.622601	4503.981498	4312.17994	3871.14148	3705.641667	3359.050161	2977.049441	2440.475371	1922.548756	1476.190837	2263.088506	12322.55062	634.2200726	532.782051	466.8135036	597.4515167	104445.3072	37319.33561	88.04990977
436	13495.12461	9256.540344	6720.16553	4564.506339	4315.887055	4075.59145	3794.858471	3664.168377	3311.691827	2896.211958	2373.340466	1948.526042	1504.732306	1635.075781	13342.52779	848.3625842	548.7124353	481.3058729	540.6567863	39312.10542	96870.55654	130.9679442
438	12836.95643	9558.663512	6482.122276	5056.2667	4205.715542	3959.38038	3701.280817	3463.123183	3113.637459	2938.08071	2386.025339	1843.226935	1507.344099	1426.176433	12531.35162	1337.277336	520.0964658	488.5917437	430.2263181	9620.424148	162175.5087	195.1361433
440	11070.44773	8395.981848	6681.995796	4934.972529	4084.585336	3851.184113	3547.53207	3346.350091	3118.401815	2794.580219	2394.520585	1842.80101	1477.653025	1290.742419	10019.61944	2264.584326	547.6269086	495.9506765	427.7370937	1241.536147	187622.8668	435.8739103
442	11542.37041	8253.885091	6141.234231	5132.428302	4231.520899	3753.433243	3414.041503	3225.807042	3152.40484	2793.770798	2280.192278	1748.379638	1408.174712	1196.45576	6896.258285	3845.227523	512.6530166	490.7603159	405.0722367	664.7831617	155544.529	5584.48324
444	11891.08107	8650.508849	6315.793035	4739.214551	4110.602216	3646.688262	3423.318836	3208.763731	2947.066041	2776.659643	2288.443676	1751.207962	1449.795373	1148.139299	4416.397713	5912.734024	511.5345159	454.7075907	410.2880001	543.4494514	93972.43284	27548.47651
446	10823.75522	8229.571705	6064.13641	4682.854909	3939.978941	3678.125519	3327.63863	3024.888625	2892.900229	2639.328498	2280.826595	1769.613493	1390.305243	1137.43831	2583.551732	7977.695296	570.5035444	468.202454	414.7456213	453.8372195	37138.43024	83054.98862
448	11542.75771	8404.902097	6130.582644	4658.594526	3913.93424	3348.533837	3126.263098	3057.580816	2874.83432	2558.025757	2184.749341	1717.421165	1378.916667	1101.959213	1579.311497	9647.574224	650.0160585	472.0642948	437.5265753	404.7507223	8774.054448	145447.4707
450	11717.75849	8709.76519	6442.999658	4513.249156	3930.612387	3410.206511	3172.43838	2980.067044	2789.830559	2557.46939	2122.561305	1732.909637	1395.916734	1096.829327	1237.397582	10070.04503	858.1515551	484.4975596	435.9506254	378.3624176	1166.931301	179261.1576
452	9808.482893	8296.334622	5836.717528	4667.373938	3895.966702	3249.706145	2989.403681	2787.725092	2732.573933	2527.920539	2157.350049	1702.678843	1355.22867	1104.080995	1036.981392	9162.617383	1417.487219	480.3673644	454.7806876	371.4887294	596.7739969	158437.6706
454	11613.68968	8209.906744	5887.430792	4705.986676	3920.416358	3098.612412	2879.706912	2839.461382	2650.103065	2410.895806	2053.106191	1639.028234	1387.050833	1136.440533	992.4676321	7167.110213	2381.189873	478.2817255	440.5935814	353.4726434	491.1908492	95938.69222
456	10281.24652	8849.781105	6324.377117	4891.175978	3759.85142	3191.044578	2853.944491	2759.91726	2583.900959	2475.053623	2046.680839	1682.179201	1347.279193	1117.138552	924.6233567	4843.767187	3851.731815	489.2824837	450.918058	354.2414637	433.2655887	38586.90316
458	10221.02213	8281.811241	6512.309169	4878.212442	3797.644691	2960.378355	2815.105567	2581.070854	2504.902745	2307.765604	2061.019558	1632.367445	1347.822852	1140.32794	948.6810786	3040.990632	5551.219071	504.3496272	450.4102159	384.9863903	371.9962686	9001.014485
460	8260.462893	8201.026156	6038.022047	4908.944187	3877.473052	3012.122251	2773.047695	2567.482143	2527.279988	2377.932952	2023.875774	1655.211208	1335.595486	1103.338466	879.9996336	1804.997057	7101.838173	546.3054604	454.209665	406.8537246	338.0011706	1099.906414
462	10481.82511	8423.370392	5885.56721	4871.836263	3911.669552	3011.25321	2621.96603	2477.539637	2563.636124	2327.553484	1987.588176	1630.430688	1294.417776	1093.549223	888.7976694	1247.84484	8119.953486	636.4352871	469.7530973	446.7682761	352.6560256	543.9336914
464	10765.41265	8387.75547	6280.551111	5061.617992	3769.594903	2953.644379	2550.96017	2561.041684	2379.348308	2261.227785	1966.086644	1611.452795	1312.993224	1115.707146	880.7512818	985.050141	8051.230033	945.2303846	461.0295119	426.4563666	339.072446	458.3634842
466	10477.23688	8987.725637	6151.128649	4985.877785	3904.566058	2946.509504	2567.750239	2451.958365	2327.916965	2226.866724	1920.158784	1607.207505	1289.538512	1076.764682	896.0994278	912.4684642	6864.462048	1548.29227	472.4572168	424.1181156	332.2965388	429.4500524
468	15195.652	7557.866879	6622.738328	4875.361057	3857.281847	2865.167145	2510.865782	2408.219783	2278.698507	2146.264476	1842.638186	1543.185165	1289.192047	1059.411061	869.5805521	895.4237646	5200.797602	2452.703118	471.813155	423.3610931	352.4995057	370.2424483
470	33882.7861	8219.467528	6780.613837	5143.999696	3821.631908	2824.454441	2464.608034	2323.846414	2223.080909	2089.032603	1840.600255	1486.735524	1270.282316	1081.960831	878.2677172	834.1909542	3483.777144	3749.643124	480.4259876	447.176123	366.747735	351.1722015
472	71489.44758	7080.60776	6409.778025	5186.250349	3750.126814	2707.210231	2354.166586	2182.300036	2265.292126	2033.89065	1759.522312	1483.657637	1270.961325	1073.88169	908.5658182	793.6731625	2198.435172	5058.824062	507.3966437	452.7594523	411.8144715	341.1091027
474	123350.1594	7869.680242	6167.249965	5015.89747	3763.647344	2828.383437	2365.122704	2192.561213	2201.251235	2006.158184	1718.200377	1443.333452	1237.159703	1073.386113	897.2104635	796.4720147	1411.707602	6267.654046	559.1654561	462.11173	418.4400288	319.5755579
476	207553.5749	7892.696626	6541.235966	5181.277945	3833.749193	2749.090215	2306.12894	2147.267786	1989.296607	2042.19615	1718.043248	1431.700167	1221.122621	1033.139757	874.3047166	759.7937905	992.1753381	6723.232788	716.6603893	482.8782631	394.4972623	319.7347434
478	297611.2632	7792.343455	6581.81058	5020.954066	3941.159593	2711.866023	2191.38784	2167.556466	1974.641352	1906.582741	1693.059169	1391.501352	1200.837659	1023.665854	874.703749	742.8635404	882.8430309	6431.543383	1052.612856	481.1088422	402.9742832	334.011884
480	357984.443	7421.785049	6710.459207	5204.85173	3830.681207	2618.45381	2146.991342	1992.606088	2021.476288	1893.495366	1688.454326	1342.369688	1202.278061	1036.900961	916.3776506	775.6846356	783.670948	5390.585659	1680.902198	454.6653009	390.9045787	362.1643233
482	394294.9631	7749.913431	6549.264165	5302.572716	3932.7743	2460.00191	2093.682757	1984.814754	1809.775024	1808.762206	1607.781728	1338.334732	1180.291221	1006.512096	863.294454	729.9971346	748.4584049	3979.326132	2550.649103	484.7513807	430.9715987	378.5675658
484	359298.499	8674.466776	6417.141445	5114.969141	3940.083941	2667.676108	2023.684163	1975.386377	1820.289167	1804.695214	1555.94231	1275.121045	1121.605319	1010.9425	839.9273051	739.4454899	699.2399005	2687.961968	3558.815938	482.2680164	409.2390349	397.517454
486	299581.7877	9705.428515	6892.633559	5049.768357	4034.895497	2549.182307	1924.255491	1918.334461	1855.415399	1715.562665	1488.448456	1269.956416	1128.645318	973.5857879	843.770462	731.6376497	711.2536193	1689.864988	4474.097246	510.3794331	425.0843738	432.3461369
488	212604.0104	19416.78672	6744.235949	5251.585945	3858.867791	2491.027734	1946.225415	1805.663907	1724.212409	1641.864429	1475.327046	1256.605864	1128.485773	983.9665899	836.3311692	723.4047988	669.7478614	1125.180046	5287.330986	587.248752	430.0988434	398.3810742
490	125459.0737	43172.88987	6750.521234	5407.211571	3803.437044	2485.401886	1916.760489	1824.688249	1766.701068	1621.641318	1442.59994	1208.653823	1070.882451	957.8320426	835.5353306	737.8526482	666.2327387	843.4257868	5527.751573	753.3385026	432.3332858	386.8987779
492	54455.09509	90857.96062	7112.037309	5349.629546	3907.603677	2311.254574	1948.134533	1785.925272	1730.674386	1640.677285	1450.476949	1197.045666	1073.871939	975.9306776	764.717061	729.1950756	650.8296228	748.8090623	5234.70294	1073.273777	414.9889583	397.9926885
494	22401.78059	154969.9575	7003.706246	5371.3322	4002.176942	2407.804678	1819.550329	1676.728889	1615.832878	1594.847604	1412.692671	1150.21639	1066.507789	933.5024584	831.07111	715.5185068	645.827355	712.1421292	4292.632259	1545.047483	439.3150301	399.4569664
496	12491.61246	232284.0816	6835.231958	5130.177422	3805.837794	2271.99646	1791.846063	1654.41305	1544.917781	1550.808398	1335.330747	1128.344082	1002.495363	861.3175949	781.8323248	712.4466694	705.3288486	699.8282071	3211.864418	2315.003263	444.088923	406.824154
498	10430.4369	313804.6477	7077.755855	5392.149933	3800.912768	2315.127975	1683.998877	1616.950515	1503.567926	1524.583538	1270.13968	1096.70936	1028.904689	894.71552	808.9779209	708.8664366	659.9853937	657.1127744	2159.664577	3079.773937	475.3666313	423.9519415
500	10660.08404	368946.6881	6987.682817	5406.511191	3905.799947	2263.973178	1662.485818	1567.653653	1507.518781	1422.646932	1234.751491	1077.598146	1019.022514	925.1768655	799.1749982	708.1393613	666.436878	679.6966148	1412.390868	3882.897235	507.013635	428.2385733
502	8743.035766	378745.7078	7379.007616	5655.592888	4132.935611	2214.641421	1600.454463	1531.311195	1509.977028	1399.736161	1275.4663	1022.817526	946.3524527	909.8339843	766.1869642	708.1639551	655.7089102	621.4814868	991.8231898	4550.239921	568.9204451	476.3671181
504	9808.310203	342932.1118	7975.933292	5817.331091	4142.591895	2291.247619	1558.606069	1481.320624	1442.409052	1397.154218	1259.905017	1084.343056	970.8104126	881.1143592	794.924546	720.1712355	668.8693756	640.1915797	825.4980482	4695.421585	729.8466115	466.8957069
506	10062.73667	271261.5283	9426.30531	6001.171073	4128.342706	2328.631493	1583.340048	1509.996972	1376.501757	1348.059527	1207.747654	1074.971311	942.7029817	873.7112997	787.4802316	691.1927772	681.3311051	626.5806277	767.9347847	4343.229544	1017.451253	489.9593332
508	10759.10209	184798.8064	19795.37187	5661.812961	4384.336036	2282.051079	1612.655881	1434.735617	1399.450045	1323.210922	1143.205577	1030.861942	928.0085951	885.0118502	765.506787	707.2907767	663.8054335	637.6475799	752.9114621	3680.914903	1508.275154	502.5885148
510	12918.47561	103073.963	48191.10642	6115.901219	4700.593806	2308.109836	1565.81462	1465.238877	1361.193539	1388.2342	1202.649869	979.4793226	901.0291251	822.5554493	816.1424169	705.7998106	659.0766468	677.9090496	741.5815436	2845.113452	2133.649574	525.7490488
512	19837.1356	45407.94069	102248.8923	6392.416201	4840.840124	2255.198723	1513.031621	1328.601399	1277.287446	1233.529815	1182.024523	945.5486152	898.7199721	821.1012241	759.3937151	716.630017	691.5478183	695.364099	729.3587148	1993.29643	2856.955993	579.5363844
514	28526.39174	19072.00626	180543.4327	6688.559886	4764.73728	2362.175477	1446.767238	1355.798748	1337.693273	1281.896893	1103.013736	969.5776988	902.2764845	873.5796666	774.2458985	726.8863727	698.603613	682.927636	735.1695179	1367.273842	3507.700347	601.5341651
516	43296.65778	12137.94904	268177.7458	6884.960736	5134.417693	2261.82969	1428.337729	1301.802079	1287.3461	1246.127549	1120.201577	941.8144142	891.5842421	811.1652663	792.3047386	723.8758433	718.2352673	708.9105831	738.473478	1084.368577	3996.430978	698.1009286
518	54348.09319	12129.52702	354633.189	7174.8396	5189.485767	2467.72919	1419.012295	1287.679304	1296.870701	1237.366501	1094.135068	943.2639886	870.9255329	834.3590723	760.9649827	729.1008447	699.7562964	726.5869758	791.8221481	922.6036639	4194.143558	908.7251572
520	69629.82587	11948.40205	411742.6614	7530.654788	5249.969747	2335.553379	1349.40851	1282.912423	1276.42474	1245.494609	1085.361938	898.7380517	858.1874882	805.5221698	792.2300563	754.0787329	757.3646711	727.3968969	785.0634065	927.4913264	3875.071996	1198.902107
522	86325.9073	11297.88327	416917.6241	7825.969419	5535.544177	2362.40675	1363.030066	1244.854424	1292.258823	1189.681231	1070.688077	889.4451734	829.9420824	778.0013246	776.9368326	697.217639	713.7590016	735.8869867	834.918713	963.615289	3237.051672	1608.322709
524	90089.88734	11235.04793	361629.2933	8500.836324	5794.577287	2455.880496	1371.955278	1161.118483	1246.292588	1214.221157	1028.265441	853.4663424	829.1048791	781.7682797	782.1726823	742.1762699	771.7449614	795.9882718	839.5995543	952.3266246	2518.471728	2149.213704
526	94835.54414	11441.00613	280084.9928	11231.70097	6214.047446	2472.748846	1398.33107	1217.442097	1203.475773	1211.160837	1057.429715	841.3566588	854.0534478	787.9968603	739.2714323	732.0757894	748.5935817	749.249284	873.0424508	947.6255878	1965.96571	2705.765106
528	85629.86799	13142.34646	190328.3824	25044.02416	6395.230049	2455.62321	1366.885684	1178.00974	1222.353804	1161.525621	1035.862784	812.8237716	759.8904706	802.7100562	747.0891683	715.5730228	761.8102635	823.8005761	853.5493965	981.5658791	1452.68378	3291.114938
530	73082.13453	12875.14649	105402.1261	60289.83941	6370.835902	2630.471383	1283.616314	1226.259195	1170.638112	1129.396725	1017.072781	804.2465308	758.2485965	738.5213097	704.7083732	726.9404203	778.9021297	827.5943443	908.6071043	961.3856312	1090.378642	3729.326379
532	58459.97964	16542.13179	47321.0671	124200.7018	6633.492633	2663.324389	1227.856171	1142.448623	1196.851227	1170.868341	1044.411797	803.9407999	758.3595584	750.4950122	723.5698879	759.0603722	804.160777	818.6200244	875.139586	1000.837697	1063.398816	3786.928141
534	37238.81942	21967.1833	22449.35975	211259.8831	7115.999591	2601.623258	1375.796854	1190.430192	1113.630895	1097.818076	980.1789302	786.8790615	741.2306005	722.8451301	730.286209	737.4238167	787.3084763	830.9069266	937.0050074	1013.793322	1012.850881	3494.253857
536	24724.58328	33213.91033	16769.19906	309231.9877	6987.009822	2675.72492	1200.284208	1131.393075	1196.115308	1096.420388	993.5420714	773.5584562	723.2247616	710.1216073	728.4808451	728.7938201	793.1081155	841.7547238	961.8702412	1038.293483	1011.350578	3041.734798
538	15909.54191	45258.22627	15552.45009	400715.7452	7280.517897	2740.407717	1185.148605	1195.208347	1128.811065	1083.061812	982.5202157	751.5777626	708.1735315	694.8388883	669.1459004	749.2296055	810.9547377	874.6210828	997.4587324	1058.075902	1011.277598	2480.030686
540	11249.98646	61674.3819	15104.78384	452765.7002	7677.102046	2788.990128	1428.473436	1172.593982	1085.402295	1065.309127	950.9623116	760.9724224	700.7157116	687.0071245	738.6637984	733.0350557	850.6474976	867.3082938	1018.83329	1084.483484	1020.232275	1964.549512
542	10594.90563	79041.07133	15569.03679	451592.7465	7961.673751	2894.791615	1301.286327	1039.799004	1129.384879	1116.802488	935.9472822	729.3944225	714.8170478	722.1627215	647.5464002	732.3184654	794.3623505	898.2945212	1026.047976	1114.804994	1023.531127	1505.274495
544	10525.25262	94142.79699	16387.58743	394494.995	8629.258468	2949.346098	1341.882592	1087.821375	1174.654035	1050.829287	995.4891622	714.3488493	658.4701294	680.7332834	677.4475173	704.5821398	859.542673	879.5241314	1031.352706	1098.567021	1039.306848	1275.71235
546	9583.409748	106973.5472	15960.50761	306144.6008	11174.92986	3068.390906	1316.146424	1138.386887	1083.557792	1016.471929	940.0229544	705.3879856	652.9238665	674.8885152	692.0229763	701.3152453	851.8278755	928.7766575	1043.749399	1116.463845	1050.267744	1169.595222
548	9775.835737	110932.9484	16451.40122	203586.728	25420.81715	3062.774509	1304.348393	1073.900432	1092.735468	1050.634573	930.1534506	699.3244912	651.5263047	667.6775719	675.1856608	686.6721926	855.2306435	908.718219	1043.643011	1134.847576	1062.8619	1151.629067
550	11372.26116	102396.6369	15874.11691	109993.8618	62796.4192	3213.748457	1347.802869	1015.908517	1025.595502	1077.899499	925.7063618	639.0242897	634.8442128	642.3350135	704.7904781	711.8850818	833.1964112	932.0490093	1064.277898	1181.875834	1056.744431	1146.484177
552	8578.085772	92185.44895	16873.96238	49738.539	127205.5622	3409.947223	1336.155798	1169.033146	1071.255774	995.3742416	941.6034198	664.5529398	591.3346456	659.0840376	669.8301334	699.8289674	821.7901532	951.4652342	1080.457844	1142.271064	1055.423555	1119.86813
554	9867.814541	75880.88632	18340.21615	22957.10627	216938.5374	3400.521444	1323.554186	1124.755057	990.2961657	972.9052496	898.3907646	608.4069736	605.0146118	616.3173797	656.7069437	715.7934117	780.0700124	949.9977176	1049.176444	1183.254204	1059.888445	1131.713788
556	7666.08602	60170.40505	23138.79522	16580.90625	320447.7044	3392.71124	1306.305723	1070.373512	1061.588525	999.1615612	892.5886824	639.931093	613.9521842	612.1975831	652.9454355	713.6410768	850.8165029	910.3089314	1084.439351	1170.036135	1052.969875	1115.271525
558	10389.74786	43183.0409	29708.34351	16196.99105	410576.3341	3598.690209	1356.290029	1054.712351	1029.04775	941.425775	869.7616163	628.9530899	590.7770402	592.9986838	665.1492639	700.3771029	844.7307883	947.3542734	1079.179573	1192.662002	1114.567294	1120.687619
560	8380.292329	28794.81226	39557.6883	15984.5918	465284.4453	3501.60365	1379.021731	1000.450036	1039.027003	953.1509972	905.4402959	618.323054	576.2973901	614.3242665	610.9425632	670.3533224	827.9384787	947.9158187	1147.921678	1158.428176	1101.995173	1131.403313
